"164348 - RawData-013 - E:\UV Data\adv phy chem lab\batch A&B\Au nr1_30ul.spc"
"Wavelength nm."	"Abs."
200.00	2.971
201.00	3.003
202.00	3.004
203.00	3.014
204.00	2.947
205.00	2.850
206.00	2.629
207.00	2.328
208.00	2.009
209.00	1.698
210.00	1.446
211.00	1.218
212.00	1.029
213.00	0.879
214.00	0.765
215.00	0.679
216.00	0.618
217.00	0.578
218.00	0.554
219.00	0.543
220.00	0.541
221.00	0.546
222.00	0.557
223.00	0.571
224.00	0.588
225.00	0.604
226.00	0.621
227.00	0.636
228.00	0.649
229.00	0.660
230.00	0.669
231.00	0.673
232.00	0.673
233.00	0.669
234.00	0.660
235.00	0.647
236.00	0.630
237.00	0.609
238.00	0.583
239.00	0.554
240.00	0.522
241.00	0.491
242.00	0.457
243.00	0.422
244.00	0.391
245.00	0.359
246.00	0.329
247.00	0.300
248.00	0.275
249.00	0.251
250.00	0.229
251.00	0.211
252.00	0.194
253.00	0.178
254.00	0.164
255.00	0.152
256.00	0.140
257.00	0.130
258.00	0.121
259.00	0.114
260.00	0.107
261.00	0.101
262.00	0.097
263.00	0.093
264.00	0.090
265.00	0.087
266.00	0.086
267.00	0.085
268.00	0.085
269.00	0.085
270.00	0.086
271.00	0.088
272.00	0.091
273.00	0.093
274.00	0.097
275.00	0.100
276.00	0.104
277.00	0.109
278.00	0.114
279.00	0.120
280.00	0.126
281.00	0.132
282.00	0.138
283.00	0.145
284.00	0.151
285.00	0.158
286.00	0.165
287.00	0.171
288.00	0.178
289.00	0.185
290.00	0.191
291.00	0.196
292.00	0.201
293.00	0.205
294.00	0.209
295.00	0.212
296.00	0.214
297.00	0.216
298.00	0.216
299.00	0.215
300.00	0.214
301.00	0.211
302.00	0.208
303.00	0.204
304.00	0.199
305.00	0.194
306.00	0.188
307.00	0.181
308.00	0.174
309.00	0.166
310.00	0.158
311.00	0.150
312.00	0.141
313.00	0.132
314.00	0.124
315.00	0.116
316.00	0.108
317.00	0.101
318.00	0.094
319.00	0.088
320.00	0.082
321.00	0.077
322.00	0.073
323.00	0.068
324.00	0.064
325.00	0.060
326.00	0.057
327.00	0.054
328.00	0.051
329.00	0.048
330.00	0.046
331.00	0.043
332.00	0.041
333.00	0.039
334.00	0.037
335.00	0.035
336.00	0.034
337.00	0.032
338.00	0.031
339.00	0.030
340.00	0.029
341.00	0.029
342.00	0.029
343.00	0.028
344.00	0.028
345.00	0.027
346.00	0.026
347.00	0.026
348.00	0.025
349.00	0.025
350.00	0.024
351.00	0.024
352.00	0.024
353.00	0.023
354.00	0.023
355.00	0.023
356.00	0.023
357.00	0.023
358.00	0.023
359.00	0.023
360.00	0.023
361.00	0.023
362.00	0.023
363.00	0.023
364.00	0.023
365.00	0.023
366.00	0.024
367.00	0.024
368.00	0.024
369.00	0.024
370.00	0.024
371.00	0.024
372.00	0.024
373.00	0.023
374.00	0.024
375.00	0.023
376.00	0.023
377.00	0.023
378.00	0.023
379.00	0.023
380.00	0.023
381.00	0.023
382.00	0.023
383.00	0.023
384.00	0.023
385.00	0.023
386.00	0.023
387.00	0.023
388.00	0.023
389.00	0.023
390.00	0.022
391.00	0.022
392.00	0.022
393.00	0.022
394.00	0.022
395.00	0.022
396.00	0.022
397.00	0.022
398.00	0.022
399.00	0.022
400.00	0.022
401.00	0.022
402.00	0.022
403.00	0.022
404.00	0.022
405.00	0.022
406.00	0.022
407.00	0.022
408.00	0.022
409.00	0.021
410.00	0.021
411.00	0.021
412.00	0.021
413.00	0.021
414.00	0.021
415.00	0.021
416.00	0.021
417.00	0.021
418.00	0.021
419.00	0.021
420.00	0.021
421.00	0.021
422.00	0.021
423.00	0.021
424.00	0.021
425.00	0.021
426.00	0.021
427.00	0.021
428.00	0.021
429.00	0.020
430.00	0.020
431.00	0.020
432.00	0.020
433.00	0.020
434.00	0.020
435.00	0.020
436.00	0.020
437.00	0.020
438.00	0.020
439.00	0.020
440.00	0.020
441.00	0.020
442.00	0.020
443.00	0.020
444.00	0.020
445.00	0.020
446.00	0.020
447.00	0.020
448.00	0.020
449.00	0.020
450.00	0.020
451.00	0.020
452.00	0.020
453.00	0.020
454.00	0.020
455.00	0.020
456.00	0.020
457.00	0.020
458.00	0.020
459.00	0.020
460.00	0.020
461.00	0.020
462.00	0.020
463.00	0.020
464.00	0.020
465.00	0.020
466.00	0.020
467.00	0.020
468.00	0.020
469.00	0.020
470.00	0.020
471.00	0.020
472.00	0.020
473.00	0.020
474.00	0.020
475.00	0.020
476.00	0.020
477.00	0.020
478.00	0.020
479.00	0.020
480.00	0.020
481.00	0.020
482.00	0.020
483.00	0.020
484.00	0.020
485.00	0.020
486.00	0.020
487.00	0.020
488.00	0.020
489.00	0.020
490.00	0.021
491.00	0.021
492.00	0.021
493.00	0.021
494.00	0.021
495.00	0.021
496.00	0.021
497.00	0.021
498.00	0.021
499.00	0.021
500.00	0.021
501.00	0.021
502.00	0.021
503.00	0.021
504.00	0.020
505.00	0.020
506.00	0.020
507.00	0.020
508.00	0.020
509.00	0.020
510.00	0.020
511.00	0.020
512.00	0.019
513.00	0.019
514.00	0.019
515.00	0.019
516.00	0.019
517.00	0.018
518.00	0.018
519.00	0.018
520.00	0.018
521.00	0.018
522.00	0.017
523.00	0.017
524.00	0.017
525.00	0.017
526.00	0.017
527.00	0.017
528.00	0.016
529.00	0.016
530.00	0.016
531.00	0.016
532.00	0.016
533.00	0.016
534.00	0.016
535.00	0.017
536.00	0.017
537.00	0.017
538.00	0.017
539.00	0.016
540.00	0.016
541.00	0.016
542.00	0.015
543.00	0.015
544.00	0.015
545.00	0.015
546.00	0.014
547.00	0.014
548.00	0.014
549.00	0.014
550.00	0.014
551.00	0.014
552.00	0.014
553.00	0.014
554.00	0.014
555.00	0.014
556.00	0.014
557.00	0.014
558.00	0.014
559.00	0.014
560.00	0.014
561.00	0.014
562.00	0.014
563.00	0.014
564.00	0.014
565.00	0.014
566.00	0.014
567.00	0.014
568.00	0.014
569.00	0.014
570.00	0.014
571.00	0.014
572.00	0.014
573.00	0.014
574.00	0.014
575.00	0.014
576.00	0.014
577.00	0.014
578.00	0.014
579.00	0.014
580.00	0.014
581.00	0.014
582.00	0.014
583.00	0.014
584.00	0.014
585.00	0.014
586.00	0.014
587.00	0.014
588.00	0.014
589.00	0.014
590.00	0.014
591.00	0.014
592.00	0.014
593.00	0.014
594.00	0.015
595.00	0.015
596.00	0.015
597.00	0.015
598.00	0.015
599.00	0.015
600.00	0.015
